# Wavenumber (cm^-1)  T  A
3.030490 0.975120 0.000008
3.081854 0.944530 0.000008
3.133218 0.954000 0.000008
3.184582 1.058470 0.000009
3.235946 0.993020 0.000009
3.287310 0.918300 0.000009
3.338674 0.893120 0.000009
3.390038 0.865940 0.000009
3.441402 0.928120 0.000009
3.492766 0.933000 0.000009
3.544130 0.939390 0.000009
3.595494 0.951090 0.000009
3.646858 0.979510 0.000009
3.698222 0.985490 0.000009
3.749586 0.984370 0.000009
3.800950 1.009500 0.000009
3.852314 0.974840 0.000009
3.903678 0.952330 0.000009
3.955042 1.009000 0.000009
4.006406 1.016120 0.000009
4.057770 0.977710 0.000010
4.109134 0.975380 0.000010
4.160498 0.989050 0.000010
4.211862 0.983880 0.000010
4.263226 0.975650 0.000010
4.314590 0.996260 0.000010
4.365954 1.001810 0.000010
4.417318 1.001830 0.000010
4.468682 0.999120 0.000010
4.520046 0.985900 0.000010
4.571410 0.988440 0.000010
4.622774 0.987390 0.000010
4.674138 0.991010 0.000010
4.725502 0.993530 0.000010
4.776866 0.989510 0.000010
4.828230 0.989070 0.000010
4.879594 0.981910 0.000011
4.930958 0.986240 0.000011
4.982322 0.990940 0.000011
5.033686 0.989620 0.000011
5.085050 0.983480 0.000011
5.136414 0.973340 0.000011
5.187778 0.971390 0.000011
5.239142 0.968550 0.000011
5.290506 0.971480 0.000011
5.341870 0.981940 0.000011
5.393234 0.985320 0.000011
5.444598 0.977890 0.000011
5.495962 0.973150 0.000011
5.547326 0.974030 0.000011
5.598690 0.970510 0.000011
5.650054 0.953540 0.000011
5.701418 0.946680 0.000011
5.752782 0.952770 0.000012
5.804146 0.947780 0.000012
5.855510 0.931450 0.000012
5.906874 0.923610 0.000012
5.958238 0.924800 0.000012
6.009602 0.931040 0.000012
6.060966 0.932510 0.000012
6.112330 0.922680 0.000012
6.163694 0.923420 0.000012
6.215058 0.929800 0.000012
6.266422 0.919510 0.000012
6.317786 0.895620 0.000012
6.369150 0.872340 0.000012
6.420514 0.847960 0.000012
6.471878 0.813310 0.000012
6.523242 0.784460 0.000012
6.574606 0.770000 0.000012
6.625970 0.758730 0.000013
6.677334 0.747880 0.000013
6.728698 0.729190 0.000013
6.780062 0.683290 0.000013
6.831426 0.591800 0.000013
6.882790 0.459290 0.000013
6.934154 0.325230 0.000013
6.985518 0.217940 0.000013
7.036882 0.142660 0.000013
7.088246 0.092420 0.000013
7.139610 0.058430 0.000013
7.190974 0.037060 0.000013
7.242338 0.024190 0.000013
7.293702 0.016510 0.000013
7.345066 0.011300 0.000013
7.396430 0.010120 0.000013
7.447794 0.008360 0.000014
7.499158 0.004920 0.000014
7.550522 0.005900 0.000014
7.601886 0.005800 0.000014
7.653250 0.002920 0.000014
7.704614 0.002910 0.000014
7.755978 0.003030 0.000014
7.807342 0.001760 0.000014
7.858706 0.001100 0.000014
7.910070 -0.000390 0.000014
7.961434 -0.001020 0.000014
8.012798 0.000150 0.000014
8.064162 0.001440 0.000014
8.115526 0.002940 0.000014
8.166890 0.001720 0.000014
8.218254 0.001150 0.000014
8.269618 0.002430 0.000014
8.320982 0.002590 0.000015
8.372346 0.002610 0.000015
8.423710 0.001730 0.000015
8.475074 0.000830 0.000015
8.526438 0.001050 0.000015
8.577802 0.000500 0.000015
8.629166 0.000180 0.000015
8.680530 0.000570 0.000015
8.731894 -0.000460 0.000015
8.783258 -0.000050 0.000015
8.834622 -0.000100 0.000015
8.885986 -0.001410 0.000015
8.937350 -0.001020 0.000015
8.988714 -0.000630 0.000015
9.040078 0.000390 0.000015
9.091442 0.000870 0.000015
9.142806 0.000870 0.000015
9.194170 0.001440 0.000016
9.245534 0.000970 0.000016
9.296898 0.000140 0.000016
9.348262 -0.000060 0.000016
9.399626 0.000210 0.000016
9.450990 -0.000700 0.000016
9.502354 -0.001350 0.000016
9.553718 -0.001320 0.000016
9.605082 -0.000480 0.000016
9.656446 -0.000180 0.000016
9.707810 -0.001170 0.000016
9.759174 -0.000610 0.000016
9.810538 -0.000510 0.000017
9.861902 -0.000650 0.000017
9.913266 -0.000880 0.000017
9.964630 -0.001470 0.000017
10.015994 -0.001480 0.000017
10.067358 -0.000590 0.000017
10.118722 -0.000110 0.000017
10.170086 0.000390 0.000017
10.221450 0.000990 0.000017
10.272814 0.000130 0.000018
10.324178 -0.000280 0.000018
10.375542 -0.000700 0.000018
10.426906 -0.000500 0.000018
10.478270 -0.000130 0.000018
10.529634 -0.001380 0.000018
10.580998 -0.001080 0.000018
10.632362 0.000830 0.000018
10.683726 0.002140 0.000019
10.735090 0.000700 0.000019
10.786454 -0.000370 0.000019
10.837818 0.001550 0.000019
10.889182 0.001430 0.000019
10.940546 0.000090 0.000019
10.991910 0.000560 0.000019
11.043274 0.001000 0.000019
11.094638 0.000410 0.000020
11.146002 0.000330 0.000020
11.197366 0.000100 0.000020
11.248730 0.000190 0.000020
11.300094 0.000420 0.000020
11.351458 -0.000390 0.000020
11.402822 -0.000140 0.000020
11.454186 0.000050 0.000020
11.505550 -0.000890 0.000020
11.556914 -0.000650 0.000021
11.608278 0.000010 0.000021
11.659642 -0.000720 0.000021
11.711006 -0.000770 0.000021
11.762370 0.000540 0.000021
11.813734 0.001000 0.000021
11.865098 -0.000090 0.000021
11.916462 -0.000060 0.000021
11.967826 0.000410 0.000022
12.019190 0.000270 0.000022
12.070554 -0.000100 0.000022
12.121918 -0.000480 0.000022
12.173282 -0.000450 0.000022
12.224646 -0.000220 0.000022
12.276010 0.000150 0.000022
12.327374 -0.000230 0.000022
12.378738 -0.000690 0.000023
12.430102 -0.000990 0.000023
12.481466 -0.000390 0.000023
12.532830 -0.000510 0.000023
12.584194 -0.000190 0.000023
12.635558 0.000750 0.000023
12.686922 0.000050 0.000023
12.738286 -0.000460 0.000023
12.789650 -0.000190 0.000023
12.841014 0.000380 0.000024
12.892378 0.000610 0.000024
12.943742 0.000440 0.000024
12.995106 0.000610 0.000024
13.046470 0.001670 0.000024
13.097834 0.002510 0.000024
13.149198 0.003550 0.000024
13.200562 0.004870 0.000024
13.251926 0.006460 0.000025
13.303290 0.007840 0.000025
13.354654 0.007300 0.000025
13.406018 0.005460 0.000025
13.457382 0.004460 0.000025
13.508746 0.004290 0.000025
13.560110 0.004890 0.000025
13.611474 0.005400 0.000025
13.662838 0.005460 0.000026
13.714202 0.005700 0.000026
13.765566 0.006420 0.000026
13.816930 0.009020 0.000026
13.868294 0.014480 0.000026
13.919658 0.024170 0.000026
13.971022 0.036800 0.000026
14.022386 0.040640 0.000026
14.073750 0.027770 0.000026
14.125114 0.012680 0.000027
14.176478 0.005530 0.000027
14.227842 0.002660 0.000027
14.279206 0.001770 0.000027
14.330570 0.001880 0.000027
14.381934 0.001390 0.000027
14.433298 0.000530 0.000027
14.484662 -0.000050 0.000027
14.536026 -0.000190 0.000028
14.587390 0.000610 0.000028
14.638754 0.001050 0.000028
14.690118 0.000560 0.000028
14.741482 0.000340 0.000028
14.792846 0.000380 0.000028
14.844210 0.000310 0.000028
14.895574 0.000340 0.000028
14.946938 0.000440 0.000029
14.998302 0.000230 0.000029
15.049666 -0.000030 0.000029
15.101030 -0.000220 0.000029
15.152394 -0.000510 0.000029
15.203758 -0.000950 0.000029
15.255122 -0.000870 0.000029
15.306486 -0.000360 0.000029
15.357850 0.000270 0.000029
15.409214 0.000080 0.000030
15.460578 -0.000300 0.000030
15.511942 0.000300 0.000030
15.563306 0.000360 0.000030
15.614670 0.000110 0.000030
15.666034 0.000470 0.000030
15.717398 0.000690 0.000030
15.768762 0.000160 0.000030
15.820126 -0.000380 0.000031
15.871490 -0.000250 0.000031
15.922854 -0.000580 0.000031
15.974218 -0.000850 0.000031
16.025582 -0.000390 0.000031
16.076946 0.000160 0.000031
16.128310 0.000750 0.000031
16.179674 0.000380 0.000031
16.231038 -0.000290 0.000032
16.282402 -0.000390 0.000032
16.333766 -0.000700 0.000032
16.385130 -0.000450 0.000032
16.436494 0.000080 0.000032
16.487858 0.000200 0.000032
16.539222 0.000220 0.000032
16.590586 0.000110 0.000033
16.641950 0.000050 0.000033
16.693314 0.000010 0.000033
16.744678 0.000000 0.000033
16.796042 -0.000030 0.000034
16.847406 0.000200 0.000034
16.898770 0.000570 0.000034
16.950134 0.000740 0.000034
17.001498 0.000510 0.000035
17.052862 0.000590 0.000035
17.104226 0.000910 0.000035
17.155590 0.001090 0.000035
17.206954 0.001290 0.000035
17.258318 0.001220 0.000036
17.309682 0.001130 0.000036
17.361046 0.000770 0.000036
17.412410 0.000600 0.000036
17.463774 0.001130 0.000037
17.515138 0.001120 0.000037
17.566502 0.000480 0.000037
17.617866 0.000060 0.000037
17.669230 -0.000100 0.000038
17.720594 -0.000090 0.000038
17.771958 -0.000190 0.000038
17.823322 0.000040 0.000038
17.874686 0.000140 0.000039
17.926050 -0.000010 0.000039
17.977414 0.000280 0.000039
18.028778 0.000080 0.000039
18.080142 -0.000370 0.000039
18.131506 0.000240 0.000040
18.182870 0.000660 0.000040
18.234234 0.000400 0.000040
18.285598 -0.000040 0.000040
18.336962 0.000000 0.000041
18.388326 0.000890 0.000041
18.439690 0.000950 0.000041
18.491054 0.000480 0.000041
18.542418 -0.000770 0.000042
18.593782 -0.000910 0.000042
18.645146 0.001090 0.000042
18.696510 0.000970 0.000042
18.747874 0.000950 0.000042
18.799238 0.001170 0.000043
18.850602 0.001060 0.000043
18.901966 0.001260 0.000043
18.953330 0.001530 0.000043
19.004694 0.001310 0.000044
19.056058 0.001570 0.000044
19.107422 0.001890 0.000044
19.158786 0.001840 0.000044
19.210150 0.001520 0.000045
19.261514 0.000940 0.000045
19.312878 0.000610 0.000045
19.364242 0.000450 0.000045
19.415606 0.000370 0.000046
19.466970 0.000480 0.000046
19.518334 0.000510 0.000046
19.569698 0.000610 0.000046
19.621062 0.000710 0.000046
19.672426 0.000420 0.000047
19.723790 0.000280 0.000047
19.775154 0.000630 0.000047
19.826518 0.000610 0.000047
19.877882 0.000330 0.000048
19.929246 0.000470 0.000048
19.980610 0.000380 0.000048
20.031974 -0.000040 0.000048
20.083338 -0.000150 0.000049
20.134702 0.000140 0.000049
20.186066 0.000030 0.000049
20.237430 -0.000060 0.000049
20.288794 0.000200 0.000049
20.340158 0.000280 0.000050
20.391522 0.000150 0.000050
20.442886 -0.000040 0.000050
20.494250 0.000070 0.000050
20.545614 0.000090 0.000051
20.596978 -0.000040 0.000051
20.648342 0.000210 0.000051
20.699706 0.000060 0.000051
20.751070 -0.000200 0.000052
20.802434 0.000460 0.000052
20.853798 0.000830 0.000052
20.905162 0.000630 0.000052
20.956526 0.000580 0.000053
21.007890 0.000530 0.000053
